Wavelength (micron)  Noise (photon/spectral_pixel)
      0.96453178       188.31998
      0.96464038       190.28732
      0.96474898       192.23778
      0.96485758       194.17476
      0.96496618       196.09895
      0.96507478       198.00547
      0.96518338       199.89095
      0.96529198       201.75513
      0.96540058       203.59797
      0.96550918       205.41956
      0.96561778       207.22000
      0.96572638       208.99867
      0.96583498       210.75457
      0.96594357       212.48697
      0.96605217       214.19562
      0.96616077       215.87924
      0.96626937       217.53599
      0.96637797       219.16607
      0.96648657       220.77223
      0.96659517       222.35618
      0.96670377       223.91506
      0.96681237       225.44603
      0.96692097       226.94807
      0.96702957       228.42057
      0.96713817       229.86239
      0.96724677       231.27400
      0.96735537       232.65954
      0.96746397       234.01920
      0.96757257       235.34814
      0.96768117       236.64434
      0.96778977       237.90855
      0.96789837       239.14102
      0.96800697       240.34090
      0.96811557       241.50623
      0.96822417       242.63668
      0.96833277       243.73711
      0.96844137       244.81014
      0.96854997       245.85071
      0.96865857       246.85467
      0.96876717       247.82217
      0.96887577       248.75436
      0.96898437       249.65154
      0.96909297       250.51292
      0.96920156       251.33763
      0.96931016       252.12514
      0.96941876       252.87555
      0.96952736       253.58952
      0.96963596       254.26637
      0.96974456       254.90491
      0.96985316       255.50465
      0.96996176       256.06452
      0.97007036       256.58367
      0.97017896       257.06134
      0.97028756       257.49659
      0.97039616       257.89228
      0.97050476       258.25188
      0.97061336       258.57077
      0.97072196       258.84310
      0.97083056       259.06852
      0.97093916       259.24733
      0.97104776       259.37859
      0.97115636       259.46296
      0.97126496       259.50120
      0.97137356       259.49082
      0.97148216       259.42870
      0.97159076       259.31239
      0.97169936       259.14090
      0.97180796       258.91982
      0.97191656       258.65329
      0.97202516       258.33425
      0.97213376       257.95621
      0.97224236       257.51916
      0.97235096       257.02311
      0.97245955       256.46629
      0.97256815       255.84963
      0.97267675       255.17787
      0.97278535       254.46072
      0.97289395       253.75890
      0.97300255       253.25705
      0.97311115       252.95896
      0.97321975       252.16295
      0.97332835       251.27584
      0.97343695       255.45653
      0.97354555       271.35737
      0.97365415       298.24747
      0.97376275       331.67926
      0.97387135       369.28309
      0.97397995       401.11601
      0.97408855       408.84891
      0.97419715       383.04082
      0.97430575       335.73484
      0.97441435       295.94737
      0.97452295       287.10959
      0.97463155       306.12415
      0.97474015       336.00105
      0.97484875       376.30198
      0.97495735       446.99460
      0.97506595       527.31706
      0.97517455       546.43101
      0.97528315       476.55713
      0.97539175       375.90845
      0.97550035       314.05911
      0.97560894       290.15954
      0.97571754       280.16518
      0.97582614       279.48620
      0.97593474       296.12653
      0.97604334       372.18051
      0.97615194       602.68460
      0.97626054       991.44961
      0.97636914       1356.7214
      0.97647774       1459.5168
      0.97658634       1217.3881
      0.97669494       796.88714
      0.97680354       463.07381
      0.97691214       344.08219
      0.97702074       341.60858
      0.97712934       355.78855
      0.97723794       361.05003
      0.97734654       353.14790
      0.97745514       338.67187
      0.97756374       330.71315
      0.97767234       337.00731
      0.97778094       352.13007
      0.97788954       362.35129
      0.97799814       358.20505
      0.97810674       343.17069
      0.97821534       327.74725
      0.97832394       315.72348
      0.97843254       305.13396
      0.97854114       298.90675
      0.97864974       302.19976
      0.97875834       317.27706
      0.97886693       359.75470
      0.97897553       470.48583
      0.97908413       666.66320
      0.97919273       896.01143
      0.97930133       1066.0630
      0.97940993       1099.8888
      0.97951853       980.24988
      0.97962713       762.49366
      0.97973573       553.10211
      0.97984433       457.40779
      0.97995293       492.33182
      0.98006153       584.62727
      0.98017013       660.79788
      0.98027873       671.57816
      0.98038733       605.55960
      0.98049593       495.09847
      0.98060453       398.04064
      0.98071313       356.52700
      0.98082173       364.68579
      0.98093033       392.27574
      0.98103893       418.58677
      0.98114753       438.82704
      0.98125613       456.69669
      0.98136473       472.60466
      0.98147333       476.16898
      0.98158193       456.71787
      0.98169053       424.42859
      0.98179913       405.63299
      0.98190773       406.81861
      0.98201632       408.62141
      0.98212492       399.21188
      0.98223352       384.57907
      0.98234212       372.93269
      0.98245072       364.26222
      0.98255932       356.08608
      0.98266792       351.28543
      0.98277652       356.88024
      0.98288518       374.42648
      0.98299378       392.79398
      0.98310238       397.24522
      0.98321098       384.37701
      0.98331958       364.75238
      0.98342818       351.40032
      0.98353678       347.24196
      0.98364538       345.70316
      0.98375398       339.15342
      0.98386258       326.95495
      0.98397118       315.61650
      0.98407978       308.37037
      0.98418838       303.72462
      0.98429698       301.79518
      0.98440558       302.75388
      0.98451418       306.63541
      0.98462278       319.60303
      0.98473138       359.52618
      0.98483998       443.44859
      0.98494858       553.16008
      0.98505718       638.59380
      0.98516577       658.96995
      0.98527437       610.96459
      0.98538297       529.05827
      0.98549157       458.37129
      0.98560017       415.28449
      0.98570877       386.20399
      0.98581737       361.99837
      0.98592597       344.58608
      0.98603457       334.32566
      0.98614317       329.22346
      0.98625177       327.52923
      0.98636037       328.48990
      0.98646897       337.98787
      0.98657757       385.58944
      0.98668617       504.80640
      0.98679477       639.54207
      0.98690337       682.93311
      0.98701197       618.25692
      0.98712057       581.66842
      0.98722917       710.29622
      0.98733777       914.58826
      0.98744637       1049.2257
      0.98755497       1039.1147
      0.98766357       888.42179
      0.98777217       667.85889
      0.98788077       475.23218
      0.98798937       373.01905
      0.98809797       343.77203
      0.98820657       341.35968
      0.98831517       346.53657
      0.98842376       356.58723
      0.98853236       371.35723
      0.98864096       392.10318
      0.98874956       417.62799
      0.98885816       439.59708
      0.98896676       451.61380
      0.98907536       451.18770
      0.98918396       435.06234
      0.98929256       418.01005
      0.98940116       445.80877
      0.98950976       541.59327
      0.98961836       658.82884
      0.98972696       728.79697
      0.98983556       711.22963
      0.98994416       614.66229
      0.99005276       491.97686
      0.99016136       406.24411
      0.99026996       374.90372
      0.99037856       366.62779
      0.99048716       358.96931
      0.99059576       349.85899
      0.99070436       340.12893
      0.99081296       332.49852
      0.99092156       333.62737
      0.99103016       344.57599
      0.99113876       360.75815
      0.99124736       394.84202
      0.99135596       495.30666
      0.99146456       690.53794
      0.99157315       921.23480
      0.99168175       1082.9829
      0.99179035       1099.1619
      0.99189895       963.95877
      0.99200755       745.18517
      0.99211615       549.49826
      0.99222475       448.00611
      0.99233335       414.56483
      0.99244195       403.00940
      0.99255055       412.49976
      0.99265915       436.95093
      0.99276775       447.57651
      0.99287635       431.29540
      0.99298495       403.14835
      0.99309355       382.85125
      0.99320215       374.59751
      0.99331075       371.26898
      0.99341935       367.69232
      0.99352795       364.31087
      0.99363655       364.27953
      0.99374515       367.76247
      0.99385375       372.04888
      0.99396235       387.42963
      0.99407095       451.52804
      0.99417955       595.27767
      0.99428815       783.40905
      0.99439675       941.66765
      0.99450535       1029.1350
      0.99461395       1078.0436
      0.99472255       1149.8808
      0.99483114       1234.5491
      0.99493974       1254.3241
      0.99504834       1159.7507
      0.99515694       970.84785
      0.99526554       752.17383
      0.99537414       571.17293
      0.99548274       490.97945
      0.99559134       574.94518
      0.99569994       789.57541
      0.99580854       1013.2077
      0.99591714       1134.8063
      0.99602574       1109.9153
      0.99613434       997.09565
      0.99624294       932.79499
      0.99635154       970.30436
      0.99646014       1000.7034
      0.99656874       927.81986
      0.99667734       757.11570
      0.99678594       563.53719
      0.99689454       430.18116
      0.99700314       387.20437
      0.99711174       412.82406
      0.99722034       488.68108
      0.99732894       590.70797
      0.99743754       672.43763
      0.99754614       692.12563
      0.99765474       642.65946
      0.99776334       558.51940
      0.99787194       493.97981
      0.99798054       474.28610
      0.99808913       476.05029
      0.99819773       469.27473
      0.99830633       445.40879
      0.99841493       413.19409
      0.99852353       386.01500
      0.99863213       370.92218
      0.99874073       366.53415
      0.99884933       369.07079
      0.99895793       375.53414
      0.99906653       381.60513
      0.99917519       381.63628
      0.99928373       374.59833
      0.99939239       366.14726
      0.99950099       361.82090
      0.99960959       362.80914
      0.99971819       369.03401
      0.99982679       384.66410
      0.99993539       421.55310
       1.0000440       486.72182
       1.0001526       560.80114
       1.0002612       606.91612
       1.0003698       602.06165
       1.0004784       554.62636
       1.0005870       494.10023
       1.0006956       443.78769
       1.0008042       409.18602
       1.0009128       393.95091
       1.0010214       425.35163
       1.0011300       566.42685
       1.0012386       847.27309
       1.0013472       1201.3388
       1.0014558       1501.2841
       1.0015644       1625.4729
       1.0016730       1520.6970
       1.0017816       1231.5803
       1.0018902       879.34877
       1.0019988       601.34792
       1.0021074       475.60533
       1.0022160       466.76726
       1.0023246       504.64839
       1.0024332       575.63909
       1.0025418       699.50705
       1.0026504       856.35507
       1.0027590       971.04296
       1.0028676       976.43627
       1.0029762       869.84617
       1.0030848       725.46019
       1.0031934       626.87475
       1.0033020       560.74061
       1.0034106       483.33654
       1.0035192       417.68600
       1.0036278       391.42445
       1.0037364       390.31065
       1.0038450       398.26917
       1.0039536       408.77627
       1.0040622       418.70317
       1.0041708       436.30810
       1.0042794       486.55932
       1.0043880       580.44406
       1.0044966       681.91280
       1.0046052       736.59668
       1.0047138       714.29124
       1.0048224       625.94691
       1.0049310       516.54600
       1.0050396       437.94301
       1.0051482       413.40071
       1.0052568       421.23019
       1.0053654       426.71426
       1.0054740       427.15439
       1.0055826       442.71044
       1.0056912       465.18217
       1.0057998       468.30322
       1.0059084       472.16429
       1.0060170       536.45838
       1.0061256       663.63905
       1.0062342       785.92548
       1.0063428       836.31098
       1.0064514       789.30693
       1.0065600       673.61726
       1.0066686       560.34737
       1.0067772       513.55633
       1.0068858       526.90554
       1.0069944       554.84844
       1.0071030       577.15117
       1.0072116       594.21288
       1.0073202       598.87728
       1.0074288       574.55269
       1.0075374       518.97006
       1.0076460       458.78368
       1.0077546       426.94513
       1.0078632       423.01080
       1.0079718       434.11884
       1.0080804       494.85874
       1.0081890       676.00507
       1.0082976       960.80534
       1.0084062       1230.0743
       1.0085148       1358.6137
       1.0086234       1290.6706
       1.0087320       1063.1140
       1.0088406       776.95754
       1.0089492       542.28619
       1.0090578       417.27039
       1.0091664       376.36076
       1.0092750       368.64327
       1.0093836       370.08799
       1.0094922       374.77925
       1.0096008       384.31918
       1.0097094       400.10542
       1.0098180       420.73640
       1.0099266       445.10529
       1.0100352       471.30628
       1.0101438       499.04008
       1.0102524       548.90804
       1.0103610       657.82920
       1.0104696       810.31514
       1.0105782       926.65350
       1.0106868       935.19510
       1.0107954       823.03080
       1.0109040       643.04224
       1.0110126       484.43386
       1.0111212       410.44215
       1.0112298       405.74339
       1.0113384       432.64276
       1.0114470       533.46112
       1.0115556       826.71239
       1.0116642       1259.8192
       1.0117728       1566.2025
       1.0118814       1510.3081
       1.0119900       1125.4042
       1.0120986       691.90207
       1.0122072       511.84365
       1.0123158       665.83271
       1.0124243       988.58181
       1.0125329       1321.4119
       1.0126415       1518.5537
       1.0127501       1491.0955
       1.0128587       1255.3634
       1.0129673       941.42224
       1.0130759       740.97637
       1.0131845       699.56905
       1.0132931       659.27239
       1.0134017       564.88450
       1.0135103       486.05397
       1.0136189       455.48345
       1.0137275       445.93255
       1.0138361       442.65457
       1.0139447       443.45563
       1.0140533       445.48274
       1.0141619       447.18714
       1.0142705       450.45330
       1.0143791       462.68595
       1.0144877       489.37973
       1.0145963       521.37963
       1.0147049       543.20097
       1.0148135       550.81477
       1.0149221       552.41629
       1.0150307       557.07910
       1.0151393       578.86349
       1.0152479       651.34525
       1.0153565       788.40414
       1.0154651       933.01789
       1.0155737       1001.0887
       1.0156823       951.90730
       1.0157909       820.02378
       1.0158995       700.77738
       1.0160081       665.19793
       1.0161167       672.50407
       1.0162253       653.20862
       1.0163339       600.35984
       1.0164425       556.84763
       1.0165511       554.27578
       1.0166597       572.23526
       1.0167683       577.80664
       1.0168769       570.68339
       1.0169855       604.47943
       1.0170941       777.79788
       1.0172027       1104.6207
       1.0173113       1458.3336
       1.0174199       1675.2730
       1.0175285       1652.1679
       1.0176371       1399.5819
       1.0177457       1034.1323
       1.0178543       712.76414
       1.0179629       543.14681
       1.0180715       528.19328
       1.0181801       603.40238
       1.0182887       691.57376
       1.0183973       729.70361
       1.0185059       696.53264
       1.0186145       619.45619
       1.0187231       560.17536
       1.0188317       596.86267
       1.0189403       776.67515
       1.0190489       1042.0746
       1.0191575       1265.4295
       1.0192661       1334.3820
       1.0193747       1212.6490
       1.0194833       958.21774
       1.0195919       692.48884
       1.0197005       525.49027
       1.0198091       467.67340
       1.0199177       459.61389
       1.0200263       471.85749
       1.0201349       502.48822
       1.0202435       570.49648
       1.0203521       694.21031
       1.0204607       830.39844
       1.0205693       901.64883
       1.0206779       871.75011
       1.0207865       789.20191
       1.0208951       782.21860
       1.0210037       935.62266
       1.0211123       1189.9898
       1.0212209       1435.2289
       1.0213295       1566.6802
       1.0214381       1514.6362
       1.0215467       1280.9885
       1.0216553       947.64843
       1.0217639       639.70810
       1.0218725       456.18132
       1.0219811       399.84479
       1.0220897       403.27797
       1.0221983       423.53813
       1.0223069       447.85480
       1.0224155       498.12477
       1.0225241       634.44616
       1.0226327       858.94607
       1.0227413       1075.6781
       1.0228499       1180.3856
       1.0229585       1139.1353
       1.0230671       1022.9470
       1.0231757       964.23631
       1.0232843       998.02498
       1.0233929       1023.5380
       1.0235015       953.84524
       1.0236101       790.77463
       1.0237187       621.57785
       1.0238273       534.06595
       1.0239359       515.27701
       1.0240445       513.37063
       1.0241531       513.56961
       1.0242617       518.22312
       1.0243703       521.44930
       1.0244789       510.53303
       1.0245875       484.11041
       1.0246961       461.94329
       1.0248047       481.86317
       1.0249133       547.54545
       1.0250219       589.20483
       1.0251305       554.67894
       1.0252391       477.70792
       1.0253477       424.24488
       1.0254563       410.19672
       1.0255649       416.37812
       1.0256735       431.85576
       1.0257821       449.90776
       1.0258907       461.65931
       1.0259993       461.73863
       1.0261079       451.64907
       1.0262165       440.40222
       1.0263251       438.13832
       1.0264337       444.08705
       1.0265423       450.45627
       1.0266509       454.69882
       1.0267595       461.27396
       1.0268681       476.50528
       1.0269768       507.73824
       1.0270853       566.60494
       1.0271940       651.04240
       1.0273025       723.89002
       1.0274112       740.70177
       1.0275197       687.34318
       1.0276284       591.21913
       1.0277369       504.05098
       1.0278456       459.33970
       1.0279541       449.89763
       1.0280628       453.18680
       1.0281713       457.30264
       1.0282800       472.99862
       1.0283885       559.01546
       1.0284972       818.13426
       1.0286057       1285.3323
       1.0287144       1866.0805
       1.0288229       2360.4296
       1.0289316       2566.3379
       1.0290401       2389.6374
       1.0291488       1903.9083
       1.0292573       1320.7809
       1.0293660       887.29516
       1.0294745       765.69324
       1.0295832       904.16612
       1.0296917       1149.3926
       1.0298004       1354.8683
       1.0299089       1402.2645
       1.0300176       1255.8954
       1.0301261       978.31913
       1.0302348       694.43314
       1.0303433       520.18916
       1.0304520       470.42174
       1.0305605       479.08740
       1.0306692       499.43123
       1.0307777       523.53256
       1.0308864       575.18370
       1.0309949       676.03930
       1.0311036       794.55375
       1.0312121       864.60137
       1.0313208       843.63350
       1.0314293       739.65882
       1.0315380       604.45871
       1.0316466       498.53298
       1.0317552       443.31527
       1.0318638       420.22585
       1.0319724       411.60099
       1.0320810       411.61524
       1.0321896       415.07385
       1.0322982       417.38652
       1.0324068       419.28251
       1.0325154       425.53668
       1.0326240       441.35998
       1.0327326       469.35307
       1.0328412       504.87228
       1.0329498       534.09464
       1.0330584       541.63791
       1.0331670       522.16586
       1.0332756       485.12175
       1.0333842       447.42420
       1.0334928       420.34490
       1.0336014       404.72479
       1.0337100       396.95431
       1.0338186       398.54200
       1.0339272       423.05259
       1.0340358       481.60862
       1.0341444       554.70722
       1.0342530       602.60196
       1.0343616       602.20470
       1.0344702       570.58780
       1.0345788       574.04177
       1.0346874       693.91974
       1.0347960       912.95862
       1.0349046       1118.8373
       1.0350132       1205.4513
       1.0351218       1130.8314
       1.0352304       938.04170
       1.0353390       741.83355
       1.0354476       658.55748
       1.0355562       679.82935
       1.0356648       705.98947
       1.0357734       680.34472
       1.0358820       604.95951
       1.0359906       515.92357
       1.0360992       452.43466
       1.0362078       424.38800
       1.0363164       415.63816
       1.0364250       412.46217
       1.0365336       411.69616
       1.0366422       417.28268
       1.0367508       431.11902
       1.0368594       446.67833
       1.0369680       464.91426
       1.0370766       539.94957
       1.0371852       791.96217
       1.0372938       1241.7926
       1.0374024       1740.5381
       1.0375110       2077.2049
       1.0376196       2101.7630
       1.0377282       1805.0605
       1.0378368       1319.8546
       1.0379454       847.31546
       1.0380540       547.70412
       1.0381626       442.82396
       1.0382712       427.87563
       1.0383798       429.17972
       1.0384884       430.50148
       1.0385970       438.37517
       1.0387056       465.67645
       1.0388142       504.18776
       1.0389228       525.85482
       1.0390314       526.79510
       1.0391400       525.24313
       1.0392486       523.86524
       1.0393572       519.83948
       1.0394658       543.70489
       1.0395744       670.71317
       1.0396830       923.56493
       1.0397916       1202.8162
       1.0399002       1371.2728
       1.0400088       1344.5810
       1.0401174       1134.7323
       1.0402260       842.48817
       1.0403346       601.42870
       1.0404432       484.47149
       1.0405518       452.81182
       1.0406604       445.31873
       1.0407690       442.28627
       1.0408776       445.27355
       1.0409862       456.79351
       1.0410948       473.42707
       1.0412034       488.36471
       1.0413120       497.32973
       1.0414206       501.56352
       1.0415292       521.31837
       1.0416378       630.30376
       1.0417464       929.44502
       1.0418550       1405.2980
       1.0419636       1901.5476
       1.0420722       2211.1401
       1.0421808       2193.9965
       1.0422894       1857.2378
       1.0423980       1354.7174
       1.0425066       905.88936
       1.0426152       657.06779
       1.0427238       574.14584
       1.0428324       557.20587
       1.0429410       571.59518
       1.0430496       599.68032
       1.0431582       611.93480
       1.0432668       589.62917
       1.0433754       539.67596
       1.0434840       486.27572
       1.0435926       449.95924
       1.0437012       432.13246
       1.0438098       423.65720
       1.0439184       419.04115
       1.0440270       416.82946
       1.0441356       416.83383
       1.0442442       418.05677
       1.0443528       417.98927
       1.0444614       416.40090
       1.0445700       416.78956
       1.0446786       423.94451
       1.0447872       446.76698
       1.0448958       514.36522
       1.0450044       674.19844
       1.0451130       916.48319
       1.0452216       1144.7046
       1.0453302       1247.2042
       1.0454388       1170.6356
       1.0455474       950.32902
       1.0456560       690.08179
       1.0457646       500.81860
       1.0458732       419.57861
       1.0459818       398.66263
       1.0460904       395.27251
       1.0461990       396.12170
       1.0463076       398.38038
       1.0464162       404.15438
       1.0465248       419.48041
       1.0466334       463.96871
       1.0467420       601.07179
       1.0468506       898.74609
       1.0469592       1306.7040
       1.0470678       1668.4082
       1.0471764       1824.5741
       1.0472850       1704.9359
       1.0473936       1364.3895
       1.0475022       952.72566
       1.0476108       635.04532
       1.0477194       487.25187
       1.0478280       446.36062
       1.0479366       433.77151
       1.0480452       424.77488
       1.0481538       416.56324
       1.0482624       411.16826
       1.0483710       409.55736
       1.0484796       412.17178
       1.0485882       423.17928
       1.0486968       448.50933
       1.0488054       486.46355
       1.0489140       523.00431
       1.0490226       541.36490
       1.0491312       535.23979
       1.0492398       510.50512
       1.0493484       476.77741
       1.0494570       442.68549
       1.0495656       417.80565
       1.0496742       409.25015
       1.0497828       415.94396
       1.0498914       435.09024
       1.0500000       462.14477
       1.0501086       482.77248
       1.0502172       483.71750
       1.0503258       468.39249
       1.0504344       452.93315
       1.0505430       448.15544
       1.0506516       454.24022
       1.0507601       483.80020
       1.0508687       574.90768
       1.0509773       735.18577
       1.0510859       899.80951
       1.0511945       985.52883
       1.0513031       951.21072
       1.0514117       821.30667
       1.0515203       674.38851
       1.0516289       585.86457
       1.0517375       556.94094
       1.0518461       541.24297
       1.0519547       515.28996
       1.0520633       483.72077
       1.0521719       461.44758
       1.0522805       479.78497
       1.0523891       599.85998
       1.0524977       838.05367
       1.0526063       1106.5935
       1.0527149       1281.5620
       1.0528235       1279.9939
       1.0529321       1101.9927
       1.0530407       829.69622
       1.0531493       583.37519
       1.0532579       447.68801
       1.0533665       407.81563
       1.0534751       401.72270
       1.0535837       400.44853
       1.0536923       399.52737
       1.0538009       398.76881
       1.0539095       396.42225
       1.0540181       392.43678
       1.0541267       390.10412
       1.0542353       391.30093
       1.0543439       393.81524
       1.0544525       396.33135
       1.0545611       401.36713
       1.0546697       408.46204
       1.0547783       413.80972
       1.0548869       416.35202
       1.0549955       419.16003
       1.0551041       429.87268
       1.0552127       454.35293
       1.0553213       485.39413
       1.0554299       508.84405
       1.0555385       530.60916
       1.0556471       594.02446
       1.0557557       701.76923
       1.0558643       755.99722
       1.0559729       685.51836
       1.0560815       545.98227
       1.0561901       449.35749
       1.0562987       420.79701
       1.0564073       415.98821
       1.0565159       412.17177
       1.0566245       409.93898
       1.0567331       417.06324
       1.0568417       434.70134
       1.0569503       453.97325
       1.0570589       471.08389
       1.0571675       501.79043
       1.0572761       567.22412
       1.0573847       654.17781
       1.0574933       714.42427
       1.0576019       709.13062
       1.0577105       641.21382
       1.0578191       552.41411
       1.0579277       486.85588
       1.0580363       454.31576
       1.0581449       441.53886
       1.0582535       440.48338
       1.0583621       459.76265
       1.0584707       520.48543
       1.0585793       628.86971
       1.0586879       760.52283
       1.0587965       864.41747
       1.0589051       886.58881
       1.0590137       810.66835
       1.0591223       674.46970
       1.0592309       544.12115
       1.0593395       464.87531
       1.0594481       433.69954
       1.0595567       427.53333
       1.0596653       431.63077
       1.0597739       438.40563
       1.0598825       445.32619
       1.0599911       453.48665
       1.0600997       463.12206
       1.0602083       471.10372
       1.0603169       471.77106
       1.0604255       461.88751
       1.0605341       446.43113
       1.0606427       435.50588
       1.0607513       431.76730
       1.0608599       428.42654
       1.0609685       423.58944
       1.0610771       423.89383
       1.0611857       431.70215
       1.0612943       442.06751
       1.0614029       451.29676
       1.0615115       458.97501
       1.0616201       467.69491
       1.0617287       481.37677
       1.0618373       496.90659
       1.0619459       503.61418
       1.0620545       494.23191
       1.0621631       472.85708
       1.0622717       452.60978
       1.0623803       444.35332
       1.0624889       448.01464
       1.0625975       456.58210
       1.0627061       464.87950
       1.0628147       471.40934
       1.0629233       474.63141
       1.0630319       472.32971
       1.0631405       464.12827
       1.0632491       452.12968
       1.0633577       441.49457
       1.0634663       439.55964
       1.0635749       446.92358
       1.0636835       453.01719
       1.0637921       448.16525
       1.0639007       437.46497
       1.0640093       442.14492
       1.0641179       478.67227
       1.0642265       531.86545
       1.0643351       568.03770
       1.0644437       568.58181
       1.0645523       542.53653
       1.0646609       511.56217
       1.0647695       485.66054
       1.0648781       464.19501
       1.0649867       454.50433
       1.0650953       471.01422
       1.0652039       518.98581
       1.0653125       584.23959
       1.0654211       636.39775
       1.0655297       646.65682
       1.0656383       606.39379
       1.0657469       534.16173
       1.0658555       466.96328
       1.0659641       433.54158
       1.0660727       434.39237
       1.0661813       453.79459
       1.0662899       469.49307
       1.0663985       462.96918
       1.0665071       441.32989
       1.0666157       430.06543
       1.0667243       438.91196
       1.0668329       454.67143
       1.0669415       464.30810
       1.0670501       467.17798
       1.0671587       467.26339
       1.0672673       463.93434
       1.0673759       454.36933
       1.0674845       439.56231
       1.0675931       423.52919
       1.0677017       410.38132
       1.0678103       401.77148
       1.0679189       396.53964
       1.0680275       395.63355
       1.0681361       405.17922
       1.0682447       431.69314
       1.0683533       477.63687
       1.0684619       540.89886
       1.0685706       611.05673
       1.0686791       671.39004
       1.0687878       713.21134
       1.0688963       740.28359
       1.0690050       755.99334
       1.0691135       754.15894
       1.0692222       732.10788
       1.0693307       698.77953
       1.0694394       662.47543
       1.0695479       629.44509
       1.0696566       630.85146
       1.0697651       706.72588
       1.0698738       824.26251
       1.0699823       899.82789
       1.0700910       887.04088
       1.0701995       806.04747
       1.0703082       727.15129
       1.0704167       711.71559
       1.0705254       740.79721
       1.0706339       748.28168
       1.0707426       699.23743
       1.0708511       621.92540
       1.0709598       617.90725
       1.0710683       779.77854
       1.0711770       1036.7433
       1.0712855       1242.2124
       1.0713942       1294.8466
       1.0715027       1178.5267
       1.0716114       967.63769
       1.0717199       781.47418
       1.0718286       683.42137
       1.0719371       656.95855
       1.0720458       700.17612
       1.0721543       809.54479
       1.0722630       913.16548
       1.0723715       932.53511
       1.0724802       852.27588
       1.0725887       728.80898
       1.0726974       672.89302
       1.0728059       807.51124
       1.0729146       1128.0097
       1.0730231       1480.6209
       1.0731318       1690.9299
       1.0732404       1652.7786
       1.0733490       1380.4560
       1.0734576       994.45272
       1.0735662       659.47456
       1.0736748       497.03955
       1.0737834       484.64035
       1.0738920       509.38730
       1.0740006       513.42932
       1.0741092       503.77495
       1.0742178       547.46695
       1.0743264       708.31928
       1.0744350       931.84008
       1.0745436       1099.9992
       1.0746522       1127.7831
       1.0747608       1008.0092
       1.0748694       829.46825
       1.0749780       792.14874
       1.0750866       1050.5812
       1.0751952       1459.5682
       1.0753038       1790.9833
       1.0754124       1883.6254
       1.0755210       1692.0879
       1.0756296       1301.6374
       1.0757382       880.95719
       1.0758468       592.41199
       1.0759554       486.97828
       1.0760640       472.43241
       1.0761726       469.67067
       1.0762812       470.08169
       1.0763898       483.02283
       1.0764984       500.44113
       1.0766070       504.72161
       1.0767156       490.05972
       1.0768242       465.21258
       1.0769328       446.53650
       1.0770414       467.74853
       1.0771500       585.55853
       1.0772586       802.12322
       1.0773672       1027.3336
       1.0774758       1151.3540
       1.0775844       1112.7426
       1.0776930       929.89457
       1.0778016       691.32950
       1.0779102       505.49551
       1.0780188       422.40278
       1.0781274       403.78574
       1.0782360       405.12298
       1.0783446       412.23515
       1.0784532       420.69015
       1.0785618       427.65042
       1.0786704       435.78899
       1.0787790       450.33803
       1.0788876       460.87917
       1.0789962       448.97931
       1.0791048       424.23474
       1.0792134       420.72765
       1.0793220       451.45927
       1.0794306       496.51436
       1.0795392       530.51255
       1.0796478       536.78414
       1.0797564       512.45353
       1.0798650       472.31374
       1.0799736       440.79374
       1.0800822       434.12245
       1.0801908       450.62614
       1.0802994       474.48713
       1.0804080       487.16889
       1.0805166       479.34335
       1.0806252       455.55700
       1.0807338       430.75418
       1.0808424       419.05016
       1.0809510       421.09468
       1.0810596       426.52740
       1.0811682       427.40090
       1.0812768       424.38376
       1.0813854       428.57117
       1.0814940       494.42556
       1.0816026       734.43974
       1.0817112       1105.5761
       1.0818198       1364.3329
       1.0819284       1311.5522
       1.0820370       993.22635
       1.0821456       647.34172
       1.0822542       464.71556
       1.0823628       416.93670
       1.0824714       405.68027
       1.0825800       405.00479
       1.0826886       425.11770
       1.0827972       511.71247
       1.0829058       749.92414
       1.0830144       1202.4612
       1.0831230       1845.3785
       1.0832316       2529.2232
       1.0833402       3012.8137
       1.0834488       3091.4071
       1.0835574       2720.1483
       1.0836660       2045.9966
       1.0837746       1338.9567
       1.0838832       871.76359
       1.0839918       770.96555
       1.0841004       930.96939
       1.0842090       1240.0465
       1.0843176       1579.6263
       1.0844262       1785.5134
       1.0845348       1744.4055
       1.0846434       1461.5916
       1.0847520       1056.7494
       1.0848606       700.60616
       1.0849692       518.89737
       1.0850778       488.14430
       1.0851864       502.65497
       1.0852950       518.21503
       1.0854036       531.26166
       1.0855122       558.18746
       1.0856208       645.01784
       1.0857294       810.75645
       1.0858380       985.94040
       1.0859466       1073.7149
       1.0860552       1025.4657
       1.0861638       864.51526
       1.0862724       666.13944
       1.0863810       508.88733
       1.0864896       423.89470
       1.0865982       391.06573
       1.0867068       381.85526
       1.0868154       380.56375
       1.0869240       381.53670
       1.0870326       385.82107
       1.0871412       398.14742
       1.0872498       420.01737
       1.0873584       449.74260
       1.0874670       492.37241
       1.0875756       556.56358
       1.0876842       635.12375
       1.0877928       699.87375
       1.0879014       720.06286
       1.0880100       682.55055
       1.0881186       599.62836
       1.0882272       503.29787
       1.0883358       431.35459
       1.0884444       407.08482
       1.0885530       419.93819
       1.0886616       438.56182
       1.0887702       440.72781
       1.0888788       424.90534
       1.0889874       404.69205
       1.0890960       391.87502
       1.0892045       387.72893
       1.0893131       402.16150
       1.0894217       489.10951
       1.0895303       711.45181
       1.0896389       1029.0700
       1.0897475       1317.7258
       1.0898561       1461.7443
       1.0899647       1440.4608
       1.0900733       1341.4970
       1.0901819       1225.9754
       1.0902905       1044.1474
       1.0903991       796.84649
       1.0905077       597.83159
       1.0906163       504.07296
       1.0907249       461.41787
       1.0908335       431.84846
       1.0909421       409.49230
       1.0910507       393.89001
       1.0911593       385.01443
       1.0912679       380.10400
       1.0913765       375.42034
       1.0914851       370.74327
       1.0915937       368.07471
       1.0917023       368.74339
       1.0918109       373.88968
       1.0919195       385.81649
       1.0920281       418.23358
       1.0921367       542.84005
       1.0922453       882.11304
       1.0923539       1434.0803
       1.0924625       2034.5515
       1.0925711       2452.5405
       1.0926797       2511.6639
       1.0927883       2187.0465
       1.0928969       1618.4357
       1.0930055       1031.4338
       1.0931141       618.08706
       1.0932227       438.01102
       1.0933313       393.83766
       1.0934399       383.39068
       1.0935485       376.88345
       1.0936571       372.03633
       1.0937657       373.09385
       1.0938743       381.96892
       1.0939829       391.43852
       1.0940915       392.48764
       1.0942001       385.06342
       1.0943087       375.87302
       1.0944173       370.40570
       1.0945259       376.26687
       1.0946345       431.54390
       1.0947431       615.95830
       1.0948517       941.65874
       1.0949603       1302.6284
       1.0950689       1551.0669
       1.0951775       1580.1540
       1.0952861       1379.5001
       1.0953947       1039.6608
       1.0955033       702.59464
       1.0956119       482.80895
       1.0957205       394.72936
       1.0958291       371.93523
       1.0959377       369.51089
       1.0960463       377.35571
       1.0961549       395.28424
       1.0962635       421.16837
       1.0963721       447.55123
       1.0964807       466.67823
       1.0965893       477.44572
       1.0966979       485.81821
       1.0968065       498.36933
       1.0969151       524.78516
       1.0970237       625.97645
       1.0971323       941.55140
       1.0972409       1499.2589
       1.0973495       2128.6859
       1.0974581       2581.0286
       1.0975667       2663.8465
       1.0976753       2342.3111
       1.0977839       1756.1469
       1.0978925       1140.0592
       1.0980011       697.02351
       1.0981097       492.26194
       1.0982183       437.56807
       1.0983269       443.99945
       1.0984355       477.69407
       1.0985441       507.12782
       1.0986527       507.43983
       1.0987613       477.11130
       1.0988699       436.55249
       1.0989785       410.57920
       1.0990871       403.76597
       1.0991957       400.72048
       1.0993043       391.17641
       1.0994129       379.57980
       1.0995215       371.96203
       1.0996301       367.58225
       1.0997387       365.82658
       1.0998473       367.25347
       1.0999559       370.14734
       1.1000645       374.34662
       1.1001731       381.07479
       1.1002817       389.45114
       1.1003903       414.23570
       1.1004989       519.17360
       1.1006075       763.87077
       1.1007161       1094.6563
       1.1008247       1378.0481
       1.1009333       1488.0635
       1.1010419       1374.3126
       1.1011505       1088.7844
       1.1012591       758.92618
       1.1013677       514.73119
       1.1014763       402.18696
       1.1015849       367.38566
       1.1016935       355.84416
       1.1018021       349.32726
       1.1019107       345.03032
       1.1020193       345.25053
       1.1021279       350.91609
       1.1022365       360.50374
       1.1023451       381.58516
       1.1024537       467.45031
       1.1025623       727.78751
       1.1026709       1191.4475
       1.1027795       1738.7173
       1.1028881       2169.4916
       1.1029967       2307.8677
       1.1031053       2096.6085
       1.1032139       1626.6715
       1.1033225       1088.1722
       1.1034311       673.06618
       1.1035397       478.84441
       1.1036483       432.88880
       1.1037569       417.68519
       1.1038655       412.75011
       1.1039741       422.66684
       1.1040827       433.00914
       1.1041913       433.47060
       1.1042999       426.70780
       1.1044085       420.28277
       1.1045171       417.35561
       1.1046257       420.68589
       1.1047343       439.24308
       1.1048429       484.49167
       1.1049515       569.45377
       1.1050601       672.87350
       1.1051687       725.23831
       1.1052773       692.04269
       1.1053859       618.34979
       1.1054945       556.22431
       1.1056031       504.74313
       1.1057117       457.51695
       1.1058204       425.66337
       1.1059289       412.31594
       1.1060376       411.53973
       1.1061461       421.12585
       1.1062548       438.51943
       1.1063633       454.42675
       1.1064720       463.21227
       1.1065805       478.41927
       1.1066892       520.46738
       1.1067977       591.92787
       1.1069064       712.85946
       1.1070149       905.59852
       1.1071236       1106.1870
       1.1072321       1203.3540
       1.1073408       1137.7910
       1.1074493       934.24823
       1.1075580       682.50663
       1.1076665       488.72164
       1.1077752       401.87654
       1.1078837       388.10851
       1.1079924       402.98416
       1.1081009       435.50953
       1.1082096       481.88606
       1.1083181       523.82368
       1.1084268       548.84497
       1.1085353       600.83568
       1.1086440       787.66301
       1.1087525       1120.5261
       1.1088612       1465.7517
       1.1089697       1663.6834
       1.1090784       1624.0155
       1.1091869       1362.5688
       1.1092956       987.91282
       1.1094041       647.02572
       1.1095128       444.24602
       1.1096213       378.33529
       1.1097300       369.83952
       1.1098385       370.32576
       1.1099472       366.95476
       1.1100557       364.10585
       1.1101644       368.82436
       1.1102729       376.97966
       1.1103816       379.76264
       1.1104902       376.38922
       1.1105988       372.68801
       1.1107074       372.78143
       1.1108160       376.01027
       1.1109246       378.02785
       1.1110332       375.34411
       1.1111418       368.29511
       1.1112504       359.82040
       1.1113590       354.14587
       1.1114676       353.63782
       1.1115762       356.37528
       1.1116848       359.40145
       1.1117934       361.98042
       1.1119020       365.59523
       1.1120106       374.71122
       1.1121192       394.52927
       1.1122278       422.36878
       1.1123364       446.64017
       1.1124450       454.67894
       1.1125536       440.27424
       1.1126622       409.92329
       1.1127708       378.43546
       1.1128794       356.15937
       1.1129880       343.72111
       1.1130966       337.45008
       1.1132052       335.15873
       1.1133138       334.59558
       1.1134224       333.62191
       1.1135310       337.86348
       1.1136396       367.54580
       1.1137482       449.19772
       1.1138568       580.87410
       1.1139654       714.93097
       1.1140740       788.20672
       1.1141826       763.11164
       1.1142912       650.63384
       1.1143998       506.44248
       1.1145084       398.55546
       1.1146170       354.25462
       1.1147256       345.98633
       1.1148342       342.97527
       1.1149428       335.58763
       1.1150514       335.50232
       1.1151600       384.41971
       1.1152686       523.78711
       1.1153772       727.63883
       1.1154858       916.92244
       1.1155944       1010.7865
       1.1157030       967.92098
       1.1158116       808.95949
       1.1159202       607.19879
       1.1160288       450.45014
       1.1161374       386.51737
       1.1162460       389.06774
       1.1163546       409.69299
       1.1164632       423.12023
       1.1165718       425.56237
       1.1166804       457.02717
       1.1167890       613.69975
       1.1168976       877.99970
       1.1170062       1068.0129
       1.1171148       1030.3090
       1.1172234       789.69230
       1.1173320       520.97812
       1.1174406       368.09657
       1.1175492       323.25023
       1.1176578       320.80475
       1.1177664       327.96592
       1.1178750       333.55461
       1.1179836       335.69387
       1.1180922       335.81799
       1.1182008       336.70940
       1.1183094       338.18495
       1.1184180       338.00891
       1.1185266       337.09799
       1.1186352       335.72411
       1.1187438       331.15166
       1.1188524       324.31465
       1.1189610       319.56196
       1.1190696       317.53358
       1.1191782       314.52634
       1.1192868       308.89680
       1.1193954       306.02970
       1.1195040       314.08718
       1.1196126       348.55045
       1.1197212       486.60122
       1.1198298       830.25597
       1.1199384       1297.5109
       1.1200470       1628.4975
       1.1201556       1589.7926
       1.1202642       1198.1176
       1.1203728       717.53331
       1.1204814       414.87262
       1.1205900       331.87942
       1.1206986       327.15124
       1.1208072       331.85368
       1.1209158       338.21089
       1.1210244       347.25055
       1.1211330       363.96270
       1.1212416       394.88381
       1.1213502       432.88911
       1.1214588       456.31305
       1.1215674       447.32970
       1.1216760       405.34633
       1.1217846       348.27239
       1.1218932       302.66515
       1.1220018       283.42991
       1.1221104       282.04776
       1.1222190       284.37635
       1.1223276       290.43928
       1.1224362       315.35490
       1.1225448       371.66058
       1.1226534       441.97851
       1.1227620       489.07124
       1.1228706       489.23491
       1.1229792       446.32893
       1.1230878       384.23841
       1.1231964       330.49027
       1.1233050       298.50214
       1.1234136       280.75963
       1.1235222       267.12594
       1.1236308       259.06026
       1.1237394       259.72633
       1.1238480       264.55213
       1.1239566       267.22634
       1.1240652       267.81753
       1.1241738       270.91726
       1.1242824       276.50704
       1.1243910       279.73035
       1.1244996       279.80525
       1.1246082       279.54509
       1.1247168       279.30590
       1.1248254       277.85744
       1.1249340       275.07880
       1.1250426       271.01124
       1.1251512       264.69012
       1.1252598       255.06916
       1.1253684       243.07514
       1.1254770       233.35165
       1.1255856       232.33557
       1.1256942       241.87028
       1.1258028       257.97660
       1.1259114       276.45427
       1.1260200       291.97714
       1.1261286       298.09048
       1.1262372       294.38958
       1.1263458       287.40403
       1.1264544       282.11153
       1.1265630       278.85777
       1.1266716       287.03887
       1.1267802       362.74894
       1.1268888       604.06106
       1.1269974       983.78763
       1.1271060       1308.8025
       1.1272146       1362.8421
       1.1273232       1100.6596
       1.1274318       702.94320
       1.1275403       406.01096
       1.1276489       292.32244
       1.1277575       269.57591
       1.1278661       265.05164
       1.1279747       266.63952
       1.1280833       281.21972
       1.1281919       306.43813
       1.1283005       324.12081
       1.1284091       322.88695
       1.1285177       312.16590
       1.1286263       309.60938
       1.1287349       322.98725
       1.1288435       351.90060
       1.1289521       389.21386
       1.1290607       417.41500
       1.1291693       421.77429
       1.1292779       407.26641
       1.1293865       395.85100
       1.1294951       406.36847
       1.1296037       444.42823
       1.1297123       509.66565
       1.1298209       592.87006
       1.1299295       656.48673
       1.1300381       644.86032
       1.1301467       543.02028
       1.1302553       413.30852
       1.1303639       346.87116
       1.1304725       356.12153
       1.1305811       385.44411
       1.1306897       404.11169
       1.1307983       409.26009
       1.1309069       411.75858
       1.1310155       432.30122
       1.1311241       480.17689
       1.1312327       528.59074
       1.1313413       538.50358
       1.1314499       500.51266
       1.1315585       454.75094
